WAvelength  Water    AS     AHS    LET    RNO3   SEASALT
       0.100      1.406  1.600e-07     1.567  1.000e-07     1.505  1.000e-07     1.557  1.000e-07     1.640  1.600e-07     1.516  2.151e-04
       0.150      1.406  1.600e-07     1.567  1.000e-07     1.505  1.000e-07     1.557  1.000e-07     1.640  1.600e-07     1.516  2.151e-04
       0.200      1.396  1.099e-07     1.565  1.000e-07     1.504  1.000e-07     1.555  1.000e-07     1.627  1.099e-07     1.515  1.000e-04
       0.250      1.362  3.350e-08     1.557  1.000e-07     1.496  1.000e-07     1.547  1.000e-07     1.588  3.350e-08     1.512  5.002e-06
       0.300      1.350  1.600e-08     1.550  1.000e-07     1.489  1.000e-07     1.540  1.000e-07     1.573  1.600e-08     1.509  2.000e-06
       0.350      1.343  6.501e-09     1.545  1.000e-07     1.484  1.000e-07     1.535  1.000e-07     1.566  6.501e-09     1.506  2.252e-07
       0.400      1.339  1.862e-09     1.540  1.000e-07     1.480  1.000e-07     1.530  1.000e-07     1.561  1.862e-09     1.503  3.001e-08
       0.450      1.337  1.021e-09     1.536  1.000e-07     1.476  1.000e-07     1.526  1.000e-07     1.559  1.021e-09     1.500  2.393e-08
       0.500      1.336  1.000e-09     1.533  1.000e-07     1.472  1.000e-07     1.523  1.000e-07     1.557  1.000e-09     1.497  1.439e-08
       0.550      1.335  1.959e-09     1.530  1.000e-07     1.470  1.000e-07     1.520  1.000e-07     1.556  1.059e-09     1.495  1.000e-08
       0.600      1.334  1.089e-08     1.527  1.000e-07     1.467  1.000e-07     1.517  1.000e-07     1.555  1.122e-09     1.492  1.285e-08
       0.650      1.333  1.641e-08     1.525  1.000e-07     1.465  1.000e-07     1.515  1.000e-07     1.554  1.188e-09     1.489  2.948e-08
       0.700      1.332  3.694e-08     1.523  1.000e-07     1.464  1.000e-07     1.514  1.000e-07     1.553  1.259e-09     1.487  1.149e-07
       0.750      1.331  1.703e-07     1.522  1.000e-07     1.462  1.000e-07     1.512  1.000e-07     1.552  1.334e-09     1.485  3.463e-07
       0.800      1.330  1.430e-07     1.520  1.000e-07     1.460  1.000e-07     1.510  1.000e-07     1.551  1.413e-09     1.482  9.224e-07
       0.850      1.330  2.839e-07     1.518  1.079e-07     1.458  1.079e-07     1.508  1.079e-07     1.550  4.723e-08     1.480  2.445e-06
       0.900      1.329  4.585e-07     1.516  1.227e-07     1.457  1.227e-07     1.506  1.227e-07     1.550  1.859e-08     1.478  7.278e-06
       0.950      1.329  2.181e-06     1.514  1.521e-07     1.455  1.521e-07     1.504  1.521e-07     1.549  3.487e-07     1.477  2.369e-05
       1.000      1.328  3.240e-06     1.512  3.500e-07     1.453  3.500e-07     1.502  3.500e-07     1.548  1.165e-06     1.475  7.206e-05
       1.050      1.327  1.397e-06     1.510  1.854e-06     1.451  1.854e-06     1.501  1.854e-06     1.548  2.134e-06     1.473  1.746e-04
       1.100      1.327  1.658e-06     1.508  1.660e-06     1.449  1.660e-06     1.499  1.660e-06     1.547  1.886e-06     1.472  2.644e-04
       1.150      1.326  8.870e-06     1.507  9.499e-07     1.448  9.499e-07     1.497  9.499e-07     1.546  9.234e-07     1.470  3.120e-04
       1.200      1.325  1.217e-05     1.505  3.400e-06     1.446  3.400e-06     1.495  3.400e-06     1.545  2.176e-06     1.469  3.419e-04
       1.250      1.325  1.110e-05     1.503  1.117e-05     1.444  1.117e-05     1.493  1.117e-05     1.544  6.536e-06     1.467  3.665e-04
       1.300      1.324  1.362e-05     1.501  1.700e-05     1.442  1.700e-05     1.491  1.700e-05     1.543  9.804e-06     1.466  4.001e-04
       1.350      1.323  3.423e-05     1.499  1.291e-05     1.440  1.291e-05     1.489  1.291e-05     1.542  1.011e-05     1.464  4.450e-04
       1.400      1.322  1.842e-04     1.497  1.100e-05     1.439  1.100e-05     1.488  1.100e-05     1.541  6.138e-07     1.463  4.879e-04
       1.450      1.321  3.774e-04     1.495  1.466e-05     1.437  1.466e-05     1.486  1.466e-05     1.540  6.150e-07     1.462  5.292e-04
       1.500      1.320  2.629e-04     1.494  3.400e-05     1.435  3.400e-05     1.484  3.400e-05     1.539  1.253e-06     1.461  5.700e-04
       1.550      1.319  1.475e-04     1.492  1.563e-04     1.433  1.563e-04     1.482  1.563e-04     1.538  1.043e-04     1.460  6.119e-04
       1.600      1.318  9.847e-05     1.490  1.900e-04     1.431  1.900e-04     1.480  1.900e-04     1.537  1.339e-04     1.459  6.513e-04
       1.650      1.317  8.093e-05     1.488  1.294e-04     1.430  1.294e-04     1.478  1.294e-04     1.535  7.779e-05     1.457  6.875e-04
       1.700      1.315  7.962e-05     1.486  8.999e-05     1.428  8.999e-05     1.476  8.999e-05     1.533  4.260e-05     1.456  7.228e-04
       1.750      1.314  1.024e-04     1.484  7.674e-05     1.426  7.674e-05     1.474  7.674e-05     1.532  4.887e-05     1.455  7.593e-04
       1.800      1.312  1.314e-04     1.482  7.600e-05     1.424  7.600e-05     1.472  7.600e-05     1.530  9.441e-05     1.453  8.002e-04
       1.850      1.311  1.588e-04     1.480  9.462e-05     1.422  9.462e-05     1.470  9.462e-05     1.529  1.156e-04     1.452  8.400e-04
       1.900      1.310  1.432e-03     1.478  1.500e-04     1.420  1.500e-04     1.468  1.500e-04     1.527  1.567e-04     1.451  8.780e-04
       1.950      1.308  1.964e-03     1.475  3.076e-04     1.417  3.076e-04     1.466  3.076e-04     1.525  5.906e-04     1.449  9.264e-04
       2.000      1.306  1.230e-03     1.473  1.000e-03     1.415  1.000e-03     1.463  1.000e-03     1.523  5.657e-04     1.448  1.000e-03
       2.050      1.303  7.716e-04     1.470  1.500e-03     1.413  1.500e-03     1.461  1.500e-03     1.519  1.342e-03     1.446  1.110e-03
       2.100      1.300  5.120e-04     1.468  2.728e-03     1.410  2.728e-03     1.458  2.728e-03     1.516  2.250e-03     1.445  1.257e-03
       2.150      1.297  3.899e-04     1.465  3.197e-03     1.408  3.197e-03     1.456  3.197e-03     1.512  3.046e-03     1.443  1.449e-03
       2.200      1.293  3.531e-04     1.463  1.700e-03     1.406  1.700e-03     1.453  1.700e-03     1.507  2.003e-03     1.442  1.694e-03
       2.250      1.289  3.774e-04     1.460  1.091e-03     1.403  1.091e-03     1.450  1.091e-03     1.502  1.151e-03     1.440  2.000e-03
       2.300      1.285  4.771e-04     1.457  7.700e-04     1.400  7.700e-04     1.447  7.700e-04     1.498  7.011e-04     1.438  2.414e-03
       2.350      1.280  6.855e-04     1.454  5.707e-04     1.397  5.707e-04     1.444  5.707e-04     1.492  5.110e-04     1.436  3.007e-03
       2.400      1.275  9.568e-04     1.450  4.500e-04     1.393  4.500e-04     1.440  4.500e-04     1.486  6.598e-04     1.434  3.711e-03
       2.450      1.268  1.388e-03     1.445  3.709e-04     1.388  3.709e-04     1.436  3.709e-04     1.479  1.023e-03     1.431  4.552e-03
       2.500      1.261  2.000e-03     1.440  3.500e-04     1.383  3.500e-04     1.430  3.500e-04     1.470  1.295e-03     1.427  5.502e-03
       2.550      1.251  2.183e-03     1.434  4.467e-04     1.378  4.467e-04     1.425  4.467e-04     1.458  1.994e-03     1.421  6.483e-03
       2.600      1.237  2.512e-03     1.428  6.808e-04     1.372  6.808e-04     1.419  6.808e-04     1.442  1.932e-03     1.414  7.477e-03
       2.650      1.215  5.117e-03     1.422  1.094e-03     1.366  1.094e-03     1.413  1.094e-03     1.417  4.529e-05     1.408  8.478e-03
       2.700      1.178  1.563e-02     1.413  1.879e-03     1.358  1.879e-03     1.404  1.879e-03     1.374  1.563e-02     1.405  9.504e-03
       2.750      1.140  5.861e-02     1.404  3.420e-03     1.349  3.420e-03     1.395  3.420e-03     1.329  5.861e-02     1.407  1.069e-02
       2.800      1.152  1.199e-01     1.392  6.552e-03     1.337  6.552e-03     1.383  6.552e-03     1.343  1.199e-01     1.418  1.153e-02
       2.850      1.186  1.954e-01     1.374  1.367e-02     1.320  1.367e-02     1.365  1.367e-02     1.382  1.954e-01     1.439  1.128e-02
       2.900      1.247  2.588e-01     1.350  2.892e-02     1.297  2.892e-02     1.341  2.892e-02     1.453  2.588e-01     1.472  1.022e-02
       2.950      1.318  2.818e-01     1.322  5.668e-02     1.270  5.668e-02     1.313  5.668e-02     1.536  2.818e-01     1.527  8.808e-03
       3.000      1.383  2.636e-01     1.290  1.024e-01     1.239  1.024e-01     1.281  1.024e-01     1.612  2.636e-01     1.609  7.405e-03
       3.050      1.436  2.270e-01     1.270  1.738e-01     1.221  1.738e-01     1.262  1.738e-01     1.674  2.270e-01     1.597  6.026e-03
       3.100      1.472  1.791e-01     1.295  2.776e-01     1.244  2.776e-01     1.287  2.776e-01     1.717  1.791e-01     1.557  4.653e-03
       3.150      1.487  1.294e-01     1.448  3.168e-01     1.391  3.168e-01     1.439  3.168e-01     1.734  1.294e-01     1.520  3.450e-03
       3.200      1.481  8.872e-02     1.491  2.508e-01     1.432  2.508e-01     1.481  2.508e-01     1.727  8.872e-02     1.500  2.501e-03
       3.250      1.467  5.848e-02     1.485  2.472e-01     1.427  2.472e-01     1.476  2.472e-01     1.710  5.848e-02     1.492  2.217e-03
       3.300      1.451  3.846e-02     1.559  2.700e-01     1.498  2.700e-01     1.549  2.700e-01     1.691  3.846e-02     1.488  2.182e-03
       3.350      1.436  2.704e-02     1.617  2.132e-01     1.553  2.132e-01     1.606  2.132e-01     1.674  2.704e-02     1.486  2.209e-03
       3.400      1.422  1.945e-02     1.607  1.640e-01     1.544  1.640e-01     1.597  1.640e-01     1.657  1.945e-02     1.484  2.127e-03
       3.450      1.410  1.361e-02     1.601  1.500e-01     1.539  1.500e-01     1.591  1.500e-01     1.643  1.361e-02     1.483  1.953e-03
       3.500      1.400  9.931e-03     1.617  1.437e-01     1.554  1.437e-01     1.606  1.437e-01     1.632  9.931e-03     1.482  1.801e-03
       3.550      1.391  7.194e-03     1.629  1.133e-01     1.565  1.133e-01     1.618  1.133e-01     1.622  7.194e-03     1.481  1.627e-03
       3.600      1.384  5.297e-03     1.627  8.410e-02     1.563  8.410e-02     1.616  8.410e-02     1.614  5.297e-03     1.479  1.468e-03
       3.650      1.378  4.236e-03     1.615  6.281e-02     1.552  6.281e-02     1.605  6.281e-02     1.607  4.236e-03     1.476  1.341e-03
       3.700      1.373  3.664e-03     1.599  4.684e-02     1.536  4.684e-02     1.589  4.684e-02     1.600  3.664e-03     1.474  1.253e-03
       3.750      1.368  3.381e-03     1.583  3.535e-02     1.521  3.535e-02     1.573  3.535e-02     1.595  3.381e-03     1.473  1.200e-03
       3.800      1.363  3.381e-03     1.570  2.734e-02     1.508  2.734e-02     1.560  2.734e-02     1.589  3.381e-03     1.473  1.195e-03
       3.850      1.359  3.548e-03     1.559  2.200e-02     1.498  2.200e-02     1.549  2.200e-02     1.585  3.548e-03     1.474  1.259e-03
       3.900      1.356  3.846e-03     1.553  1.879e-02     1.492  1.879e-02     1.543  1.879e-02     1.581  3.846e-03     1.475  1.377e-03
       3.950      1.352  4.198e-03     1.548  1.672e-02     1.487  1.672e-02     1.538  1.672e-02     1.576  4.198e-03     1.477  1.535e-03
       4.000      1.349  4.645e-03     1.543  1.529e-02     1.482  1.529e-02     1.533  1.529e-02     1.573  4.645e-03     1.478  1.701e-03
       5.000      1.321  1.260e-02     1.463  6.149e-03     1.406  6.149e-03     1.453  6.149e-03     1.540  1.262e-02     1.467  2.750e-03
       6.000      1.252  1.072e-01     1.352  1.196e-02     1.299  1.196e-02     1.343  1.196e-02     1.460  1.072e-01     1.429  1.300e-02
       7.000      1.314  3.468e-02     1.033  8.435e-01     0.993  8.435e-01     1.026  8.435e-01     1.532  3.468e-02     1.448  5.675e-03
       8.000      1.291  3.510e-02     1.310  8.000e-02     1.259  8.000e-02     1.301  8.000e-02     1.505  3.510e-02     1.404  1.716e-02
       9.000      1.259  4.043e-02     0.956  1.663e+00     0.919  1.663e+00     0.950  1.663e+00     1.468  4.043e-02     1.658  2.801e-02
      10.000      1.214  5.339e-02     2.190  1.300e-01     2.104  1.300e-01     2.176  1.300e-01     1.415  5.339e-02     1.537  1.551e-02
      11.000      1.155  9.812e-02     1.894  4.303e-02     1.820  4.303e-02     1.882  4.303e-02     1.347  9.812e-02     1.488  1.400e-02
      12.000      1.132  2.026e-01     1.792  2.018e-02     1.721  2.018e-02     1.780  2.018e-02     1.319  2.026e-01     1.464  1.485e-02
      13.000      1.158  3.059e-01     1.719  1.998e-02     1.651  1.998e-02     1.707  1.998e-02     1.350  3.059e-01     1.409  1.851e-02
      14.000      1.219  3.612e-01     1.657  2.016e-02     1.592  2.016e-02     1.646  2.016e-02     1.421  3.612e-01     1.410  2.364e-02
      15.000      1.281  3.936e-01     1.543  2.229e-02     1.482  2.229e-02     1.533  2.229e-02     1.493  3.936e-01     1.444  3.357e-02
      16.000      1.329  4.146e-01     0.760  7.827e-01     0.730  7.827e-01     0.755  7.827e-01     1.550  4.146e-01     1.514  6.265e-02
      17.000      1.374  4.254e-01     1.942  6.057e-02     1.866  6.057e-02     1.929  6.057e-02     1.602  4.254e-01     1.671  9.649e-02
      18.000      1.412  4.270e-01     1.783  2.171e-02     1.713  2.171e-02     1.772  2.171e-02     1.646  4.270e-01     1.780  1.159e-01
      19.000      1.445  4.243e-01     1.727  1.780e-02     1.660  1.780e-02     1.716  1.780e-02     1.684  4.243e-01     1.764  1.331e-01
      20.000      1.470  4.180e-01     1.690  2.000e-02     1.624  2.000e-02     1.679  2.000e-02     1.714  4.180e-01     1.759  1.506e-01
      21.000      1.491  4.099e-01     1.656  2.362e-02     1.591  2.362e-02     1.645  2.362e-02     1.738  4.099e-01     1.755  1.638e-01
      22.000      1.507  4.024e-01     1.626  2.889e-02     1.562  2.889e-02     1.615  2.889e-02     1.757  4.024e-01     1.751  1.765e-01
      23.000      1.518  3.954e-01     1.600  3.464e-02     1.537  3.464e-02     1.589  3.464e-02     1.770  3.954e-01     1.749  1.879e-01
      24.000      1.529  3.887e-01     1.577  4.133e-02     1.515  4.133e-02     1.567  4.133e-02     1.782  3.887e-01     1.749  1.969e-01
      25.000      1.537  3.820e-01     1.550  5.000e-02     1.489  5.000e-02     1.540  5.000e-02     1.792  3.820e-01     1.749  2.096e-01
      26.000      1.543  3.743e-01     1.518  6.123e-02     1.458  6.123e-02     1.508  6.123e-02     1.799  3.743e-01     1.752  2.323e-01
      27.000      1.549  3.681e-01     1.484  7.521e-02     1.425  7.521e-02     1.474  7.521e-02     1.806  3.681e-01     1.755  2.573e-01
      28.000      1.552  3.618e-01     1.445  9.452e-02     1.389  9.452e-02     1.436  9.452e-02     1.809  3.618e-01     1.757  2.712e-01
      29.000      1.552  3.575e-01     1.399  1.239e-01     1.344  1.239e-01     1.390  1.239e-01     1.809  3.575e-01     1.758  2.773e-01
      30.000      1.551  3.532e-01     1.335  1.723e-01     1.283  1.723e-01     1.326  1.723e-01     1.808  3.532e-01     1.757  2.906e-01
      31.000      1.547  3.525e-01     1.267  2.413e-01     1.217  2.413e-01     1.259  2.413e-01     1.804  3.525e-01     1.756  3.248e-01
      32.000      1.544  3.559e-01     1.210  3.296e-01     1.163  3.296e-01     1.202  3.296e-01     1.800  3.559e-01     1.754  3.683e-01
      33.000      1.542  3.597e-01     1.183  4.291e-01     1.137  4.291e-01     1.175  4.291e-01     1.797  3.597e-01     1.752  4.180e-01
      34.000      1.540  3.650e-01     1.186  5.285e-01     1.140  5.285e-01     1.178  5.285e-01     1.795  3.650e-01     1.750  4.725e-01
      35.000      1.538  3.709e-01     1.246  6.332e-01     1.197  6.332e-01     1.238  6.332e-01     1.793  3.709e-01     1.747  5.245e-01
      36.000      1.536  3.771e-01     1.345  7.415e-01     1.293  7.415e-01     1.337  7.415e-01     1.791  3.771e-01     1.743  5.718e-01
      37.000      1.534  3.847e-01     1.482  8.472e-01     1.423  8.472e-01     1.472  8.472e-01     1.788  3.847e-01     1.738  6.137e-01
      38.000      1.533  3.936e-01     1.682  9.575e-01     1.616  9.575e-01     1.671  9.575e-01     1.787  3.936e-01     1.733  6.500e-01
      39.000      1.531  4.034e-01     1.949  1.044e+00     1.873  1.044e+00     1.936  1.044e+00     1.785  4.034e-01     1.728  6.831e-01
      40.000      1.529  4.140e-01     2.140  1.122e+00     2.056  1.122e+00     2.126  1.122e+00     1.782  4.140e-01     1.723  7.145e-01
